# V303 Messwerte
# Photodetektorschaltung
# Abstand/cm Intensit√§t/V

00          9.0
02          8.5
04          8.5
06          8.0
08          7.0
10          6.0
12          5.0
14          4.5
16          3.5
18          3.0
20          3.0
22          2.5
24          2.0
26          2.0
28          1.5
30          1.5
32          1.5
34          1.0
36          1.0
38          1.0
